Wavelengths (microns) Transmittance (%)
2.000	0.19
2.001	0.21
2.002	0.08
2.003	0.03
2.003	0.13
2.004	0.19
2.005	0.12
2.006	0.08
2.006	0.17
2.007	0.14
2.008	0.04
2.009	0.01
2.010	0.00
2.010	0.04
2.011	0.08
2.012	0.05
2.013	0.00
2.013	-0.03
2.014	0.04
2.015	0.15
2.016	0.19
2.017	0.17
2.017	0.11
2.018	0.06
2.019	0.07
2.020	0.10
2.020	0.11
2.021	0.14
2.022	0.21
2.023	0.22
2.024	0.16
2.024	0.13
2.025	0.09
2.026	0.02
2.027	0.03
2.028	0.10
2.028	0.11
2.029	0.09
2.030	0.13
2.031	0.14
2.032	0.16
2.032	0.22
2.033	0.19
2.034	0.07
2.035	0.01
2.036	0.01
2.036	0.04
2.037	0.10
2.038	0.10
2.039	0.01
2.040	0.01
2.040	0.09
2.041	0.16
2.042	0.21
2.043	0.18
2.044	0.05
2.044	-0.05
2.045	-0.01
2.046	0.06
2.047	0.13
2.048	0.16
2.048	0.16
2.049	0.12
2.050	0.05
2.051	-0.05
2.052	-0.05
2.052	0.07
2.053	0.14
2.054	0.14
2.055	0.12
2.056	0.07
2.057	0.05
2.057	0.04
2.058	0.10
2.059	0.11
2.060	0.05
2.061	0.03
2.061	0.03
2.062	0.09
2.063	0.15
2.064	0.12
2.065	0.08
2.066	0.09
2.066	0.12
2.067	0.14
2.068	0.19
2.069	0.20
2.070	0.09
2.071	-0.04
2.071	-0.06
2.072	0.02
2.073	0.14
2.074	0.24
2.075	0.25
2.076	0.19
2.076	0.18
2.077	0.20
2.078	0.16
2.079	0.11
2.080	0.11
2.081	0.10
2.081	0.04
2.082	0.01
2.083	0.04
2.084	0.05
2.085	0.04
2.086	0.08
2.086	0.14
2.087	0.14
2.088	0.07
2.089	0.04
2.090	0.10
2.091	0.15
2.091	0.17
2.092	0.19
2.093	0.17
2.094	0.11
2.095	0.08
2.096	0.09
2.096	0.06
2.097	0.02
2.098	0.09
2.099	0.13
2.100	0.13
2.101	0.14
2.102	0.17
2.102	0.17
2.103	0.10
2.104	0.05
2.105	0.06
2.106	0.09
2.107	0.12
2.108	0.15
2.108	0.12
2.109	0.08
2.110	0.09
2.111	0.09
2.112	0.06
2.113	0.05
2.114	0.09
2.114	0.19
2.115	0.22
2.116	0.18
2.117	0.13
2.118	0.04
2.119	0.06
2.120	0.10
2.121	0.12
2.121	0.12
2.122	0.12
2.123	0.13
2.124	0.14
2.125	0.15
2.126	0.13
2.127	0.04
2.127	0.02
2.128	0.08
2.129	0.12
2.130	0.08
2.131	0.02
2.132	-0.02
2.133	-0.04
2.134	0.00
2.134	0.03
2.135	0.04
2.136	0.07
2.137	0.09
2.138	0.08
2.139	0.04
2.140	0.05
2.141	0.08
2.142	0.06
2.142	0.04
2.143	0.04
2.144	0.06
2.145	0.06
2.146	0.04
2.147	0.06
2.148	0.10
2.149	0.14
2.150	0.15
2.150	0.13
2.151	0.09
2.152	0.05
2.153	0.02
2.154	0.03
2.155	0.04
2.156	0.01
2.157	0.01
2.158	0.09
2.158	0.15
2.159	0.11
2.160	0.06
2.161	0.06
2.162	0.10
2.163	0.16
2.164	0.21
2.165	0.21
2.166	0.10
2.167	-0.02
2.168	-0.04
2.168	0.02
2.169	0.04
2.170	0.06
2.171	0.11
2.172	0.09
2.173	0.01
2.174	-0.01
2.175	0.01
2.176	0.02
2.177	0.04
2.178	0.06
2.178	0.10
2.179	0.14
2.180	0.15
2.181	0.10
2.182	0.01
2.183	-0.01
2.184	0.05
2.185	0.11
2.186	0.14
2.187	0.16
2.188	0.13
2.189	0.07
2.189	0.02
2.190	0.03
2.191	0.07
2.192	0.06
2.193	0.04
2.194	0.05
2.195	0.07
2.196	0.03
2.197	0.02
2.198	0.08
2.199	0.04
2.200	-0.02
2.201	-0.07
2.202	-0.02
2.203	0.05
2.203	0.09
2.204	0.11
2.205	0.07
2.206	-0.01
2.207	-0.04
2.208	0.00
2.209	0.04
2.210	0.08
2.211	0.12
2.212	0.10
2.213	0.04
2.214	0.03
2.215	0.07
2.216	0.09
2.217	0.04
2.218	-0.02
2.219	-0.02
2.220	0.04
2.220	0.07
2.221	0.08
2.222	0.10
2.223	0.14
2.224	0.12
2.225	0.05
2.226	0.01
2.227	0.03
2.228	0.03
2.229	0.01
2.230	0.04
2.231	0.08
2.232	0.04
2.233	0.03
2.234	0.06
2.235	0.09
2.236	0.11
2.237	0.11
2.238	0.12
2.239	0.11
2.240	0.09
2.241	0.05
2.242	0.01
2.243	0.00
2.244	0.02
2.244	0.06
2.245	0.08
2.246	0.07
2.247	0.06
2.248	0.04
2.249	0.03
2.250	0.03
2.251	0.03
2.252	0.04
2.253	0.06
2.254	0.05
2.255	0.02
2.256	0.01
2.257	0.02
2.258	0.00
2.259	-0.03
2.260	-0.01
2.261	0.02
2.262	0.04
2.263	0.07
2.264	0.07
2.265	0.06
2.266	0.06
2.267	0.06
2.268	0.09
2.269	0.13
2.270	0.13
2.271	0.10
2.272	0.07
2.273	0.06
2.274	0.08
2.275	0.08
2.276	0.05
2.277	0.05
2.278	0.08
2.279	0.09
2.280	0.06
2.281	0.05
2.282	0.05
2.283	0.06
2.284	0.08
2.285	0.10
2.286	0.10
2.287	0.08
2.288	0.06
2.289	0.04
2.290	0.04
2.291	0.06
2.292	0.07
2.293	0.06
2.294	0.05
2.295	0.07
2.296	0.06
2.297	0.02
2.298	0.01
2.299	0.02
2.300	0.04
2.301	0.04
2.302	0.07
2.303	0.10
2.304	0.06
2.305	0.01
2.306	0.01
2.307	0.03
2.308	0.01
2.310	0.01
2.311	0.05
2.312	0.09
2.313	0.09
2.314	0.06
2.315	0.04
2.316	0.04
2.317	0.07
2.318	0.11
2.319	0.11
2.320	0.06
2.321	0.02
2.322	0.02
2.323	0.04
2.324	0.06
2.325	0.06
2.326	0.05
2.327	0.02
2.328	-0.02
2.329	-0.05
2.330	-0.02
2.331	0.03
2.332	0.05
2.333	0.04
2.334	0.04
2.336	0.04
2.337	0.03
2.338	0.01
2.339	0.00
2.340	0.01
2.341	0.05
2.342	0.10
2.343	0.12
2.344	0.05
2.345	0.00
2.346	0.02
2.347	0.05
2.348	0.03
2.349	0.01
2.350	0.02
2.351	0.04
2.352	0.06
2.354	0.08
2.355	0.08
2.356	0.07
2.357	0.05
2.358	0.04
2.359	0.03
2.360	0.02
2.361	0.00
2.362	0.00
2.363	0.03
2.364	0.05
2.365	0.05
2.366	0.05
2.368	0.08
2.369	0.09
2.370	0.06
2.371	0.03
2.372	0.01
2.373	0.05
2.374	0.10
2.375	0.07
2.376	0.01
2.377	-0.01
2.378	-0.01
2.379	0.00
2.381	0.00
2.382	0.00
2.383	0.00
2.384	0.01
2.385	0.01
2.386	0.04
2.387	0.08
2.388	0.10
2.389	0.09
2.390	0.06
2.392	0.02
2.393	0.02
2.394	0.06
2.395	0.06
2.396	0.04
2.397	0.05
2.398	0.05
2.399	0.04
2.400	0.02
2.402	0.01
2.403	0.00
2.404	0.01
2.405	0.02
2.406	0.02
2.407	0.02
2.408	0.04
2.409	0.05
2.410	0.04
2.412	0.01
2.413	0.01
2.414	0.02
2.415	0.03
2.416	0.07
2.417	0.10
2.418	0.08
2.419	0.04
2.421	0.02
2.422	0.01
2.423	0.03
2.424	0.05
2.425	0.04
2.426	0.02
2.427	0.05
2.429	0.07
2.430	0.06
2.431	0.03
2.432	0.03
2.433	0.07
2.434	0.08
2.435	0.08
2.437	0.04
2.438	0.00
2.439	0.00
2.440	0.03
2.441	0.04
2.442	0.04
2.443	0.04
2.445	0.05
2.446	0.03
2.447	0.02
2.448	0.02
2.449	0.02
2.450	0.02
2.452	0.03
2.453	0.05
2.454	0.05
2.455	0.05
2.456	0.04
2.457	0.02
2.459	0.03
2.460	0.05
2.461	0.05
2.462	0.05
2.463	0.04
2.464	0.03
2.466	0.02
2.467	0.04
2.468	0.05
2.469	0.06
2.470	0.08
2.471	0.08
2.473	0.04
2.474	0.01
2.475	0.01
2.476	0.01
2.477	-0.01
2.478	-0.01
2.480	0.02
2.481	0.05
2.482	0.05
2.483	0.04
2.484	0.03
2.486	0.03
2.487	0.04
2.488	0.04
2.489	0.03
2.490	0.03
2.492	0.03
2.493	0.01
2.494	0.01
2.495	0.03
2.496	0.03
2.498	0.03
2.499	0.02
2.500	0.02
2.501	0.01
2.502	0.00
2.504	0.02
2.505	0.02
2.506	0.01
2.507	0.02
2.508	0.02
2.510	0.02
2.511	0.05
2.512	0.07
2.513	0.06
2.515	0.04
2.516	0.03
2.517	0.02
2.518	0.00
2.519	0.01
2.521	0.02
2.522	0.01
2.523	-0.01
2.524	0.02
2.526	0.08
2.527	0.07
2.528	0.04
2.529	0.01
2.531	0.03
2.532	0.05
2.533	0.05
2.534	0.04
2.535	0.04
2.537	0.04
2.538	0.05
2.539	0.05
2.540	0.02
2.542	-0.02
2.543	-0.01
2.544	0.02
2.545	0.04
2.547	0.04
2.548	0.03
2.549	0.02
2.550	0.01
2.552	0.01
2.553	0.02
2.554	0.03
2.555	0.05
2.557	0.05
2.558	0.04
2.559	0.02
2.561	0.01
2.562	0.03
2.563	0.05
2.564	0.04
2.566	0.01
2.567	0.00
2.568	0.00
2.569	0.02
2.571	0.03
2.572	0.03
2.573	0.03
2.575	0.01
2.576	-0.01
2.577	0.01
2.578	0.03
2.580	0.02
2.581	0.01
2.582	0.02
2.584	0.03
2.585	0.02
2.586	0.03
2.587	0.04
2.589	0.03
2.590	0.02
2.591	0.01
2.593	0.01
2.594	0.00
2.595	0.01
2.596	0.01
2.598	0.02
2.599	0.02
2.600	0.02
2.602	0.01
2.603	0.01
2.604	0.02
2.606	0.03
2.607	0.04
2.608	0.03
2.610	0.03
2.611	0.02
2.612	0.01
2.613	0.01
2.615	0.00
2.616	0.01
2.617	0.03
2.619	0.05
2.620	0.05
2.621	0.04
2.623	0.04
2.624	0.03
2.625	0.04
2.627	0.04
2.628	0.02
2.629	0.00
2.631	0.01
2.632	0.03
2.633	0.04
2.635	0.05
2.636	0.03
2.637	0.00
2.639	0.00
2.640	0.00
2.641	0.00
2.643	0.01
2.644	0.00
2.646	-0.02
2.647	-0.01
2.648	0.02
2.650	0.04
2.651	0.05
2.652	0.04
2.654	0.02
2.655	0.02
2.656	0.02
2.658	0.02
2.659	0.02
2.660	0.02
2.662	0.01
2.663	0.01
2.665	0.02
2.666	0.03
2.667	0.03
2.669	0.02
2.670	0.01
2.671	0.03
2.673	0.04
2.674	0.04
2.676	0.02
2.677	0.03
2.678	0.04
2.680	0.04
2.681	0.04
2.682	0.03
2.684	0.02
2.685	0.01
2.687	0.01
2.688	0.00
2.689	0.00
2.691	0.01
2.692	0.02
2.694	0.02
2.695	0.03
2.696	0.03
2.698	0.03
2.699	0.02
2.701	0.01
2.702	0.02
2.703	0.04
2.705	0.04
2.706	0.03
2.708	0.02
2.709	0.02
2.711	0.01
2.712	0.02
2.713	0.03
2.715	0.02
2.716	0.00
2.718	0.00
2.719	0.01
2.720	0.01
2.722	0.01
2.723	0.01
2.725	0.01
2.726	0.02
2.728	0.02
2.729	0.02
2.731	0.00
2.732	-0.01
2.733	0.00
2.735	0.01
2.736	0.02
2.738	0.03
2.739	0.02
2.741	0.02
2.742	0.01
2.744	0.02
2.745	0.02
2.746	0.01
2.748	0.01
2.749	0.02
2.751	0.03
2.752	0.02
2.754	0.02
2.755	0.03
2.757	0.03
2.758	0.03
2.760	0.03
2.761	0.02
2.763	0.02
2.764	0.03
2.765	0.05
2.767	0.06
2.768	0.05
2.770	0.03
2.771	0.01
2.773	0.00
2.774	0.01
2.776	0.02
2.777	0.02
2.779	0.01
2.780	0.01
2.782	0.02
2.783	0.03
2.785	0.02
2.786	0.01
2.788	0.00
2.789	-0.01
2.791	0.01
2.792	0.03
2.794	0.06
2.795	0.06
2.797	0.05
2.798	0.03
2.800	0.03
2.801	0.03
2.803	0.01
2.804	0.00
2.806	0.00
2.807	0.02
2.809	0.04
2.810	0.04
2.812	0.04
2.814	0.04
2.815	0.03
2.817	0.02
2.818	0.01
2.820	0.01
2.821	0.01
2.823	0.01
2.824	0.01
2.826	0.01
2.827	0.02
2.829	0.01
2.830	0.01
2.832	0.01
2.834	0.00
2.835	0.00
2.837	0.01
2.838	0.03
2.840	0.03
2.841	0.03
2.843	0.03
2.844	0.03
2.846	0.02
2.848	0.01
2.849	0.01
2.851	0.01
2.852	0.01
2.854	0.02
2.855	0.01
2.857	0.01
2.859	0.01
2.860	0.03
2.862	0.02
2.863	0.01
2.865	0.02
2.866	0.03
2.868	0.03
2.870	0.02
2.871	0.01
2.873	0.00
2.874	0.02
2.876	0.05
2.878	0.04
2.879	0.01
2.881	0.01
2.882	0.02
2.884	0.02
2.886	0.02
2.887	0.02
2.889	0.02
2.890	0.01
2.892	0.01
2.894	0.01
2.895	0.00
2.897	0.00
2.899	0.00
2.900	0.01
2.902	0.02
2.903	0.02
2.905	0.02
2.907	0.02
2.908	0.01
2.910	0.01
2.912	0.01
2.913	0.02
2.915	0.02
2.916	0.02
2.918	0.02
2.920	0.02
2.921	0.01
2.923	0.01
2.925	0.01
2.926	0.01
2.928	0.01
2.930	0.01
2.931	0.02
2.933	0.02
2.935	0.01
2.936	0.01
2.938	0.02
2.940	0.02
2.941	0.01
2.943	0.00
2.945	0.00
2.946	0.01
2.948	0.01
2.950	0.00
2.951	0.00
2.953	0.01
2.955	0.01
2.956	0.01
2.958	0.03
2.960	0.04
2.961	0.03
2.963	0.02
2.965	0.01
2.967	0.00
2.968	-0.01
2.970	0.00
2.972	0.01
2.973	0.02
2.975	0.03
2.977	0.03
2.978	0.03
2.980	0.02
2.982	0.03
2.984	0.04
2.985	0.04
2.987	0.03
2.989	0.02
2.991	0.02
2.992	0.01
2.994	0.00
2.996	0.01
2.997	0.02
2.999	0.02
3.001	0.01
3.003	0.01
3.004	0.01
3.006	0.01
3.008	0.01
3.010	0.01
3.011	0.02
3.013	0.01
3.015	0.01
3.017	0.02
3.018	0.03
3.020	0.03
3.022	0.01
3.024	0.00
3.025	0.00
3.027	0.00
3.029	0.01
3.031	0.02
3.032	0.02
3.034	0.01
3.036	0.02
3.038	0.03
3.040	0.04
3.041	0.03
3.043	0.02
3.045	0.02
3.047	0.01
3.049	0.00
3.050	-0.01
3.052	0.00
3.054	0.01
3.056	0.01
3.058	0.00
3.059	-0.01
3.061	0.00
3.063	0.02
3.065	0.03
3.067	0.03
3.068	0.03
3.070	0.02
3.072	0.02
3.074	0.02
3.076	0.01
3.078	0.01
3.079	0.02
3.081	0.01
3.083	0.00
3.085	0.00
3.087	0.01
3.089	0.01
3.090	0.00
3.092	0.00
3.094	0.01
3.096	0.02
3.098	0.02
3.100	0.02
3.101	0.02
3.103	0.01
3.105	0.00
3.107	0.00
3.109	0.01
3.111	0.00
3.113	-0.01
3.115	-0.01
3.116	0.00
3.118	0.01
3.120	0.01
3.122	0.02
3.124	0.02
3.126	0.02
3.128	0.01
3.130	0.00
3.131	0.00
3.133	0.01
3.135	0.01
3.137	0.01
3.139	0.01
3.141	0.01
3.143	0.01
3.145	0.01
3.147	0.01
3.149	0.01
3.150	0.01
3.152	0.02
3.154	0.02
3.156	0.02
3.158	0.02
3.160	0.01
3.162	0.01
3.164	0.00
3.166	0.01
3.168	0.02
3.170	0.02
3.172	0.02
3.174	0.02
3.176	0.01
3.178	0.01
3.179	0.02
3.181	0.02
3.183	0.02
3.185	0.01
3.187	0.01
3.189	0.02
3.191	0.02
3.193	0.02
3.195	0.01
3.197	0.01
3.199	0.01
3.201	0.01
3.203	0.01
3.205	0.02
3.207	0.02
3.209	0.01
3.211	0.00
3.213	0.01
3.215	0.02
3.217	0.02
3.219	0.02
3.221	0.02
3.223	0.01
3.225	0.00
3.227	0.01
3.229	0.02
3.231	0.03
3.233	0.03
3.235	0.02
3.237	0.01
3.239	0.01
3.241	0.01
3.243	0.02
3.245	0.01
3.247	0.01
3.249	0.01
3.251	0.02
3.253	0.02
3.255	0.02
3.257	0.00
3.259	0.00
3.262	0.01
3.264	0.01
3.266	0.02
3.268	0.02
3.270	0.02
3.272	0.02
3.274	0.02
3.276	0.01
3.278	0.00
3.280	0.00
3.282	0.00
3.284	0.01
3.286	0.01
3.288	0.01
3.291	0.01
3.293	0.02
3.295	0.02
3.297	0.02
3.299	0.02
3.301	0.02
3.303	0.02
3.305	0.02
3.307	0.02
3.309	0.02
3.312	0.02
3.314	0.01
3.316	0.00
3.318	0.00
3.320	0.01
3.322	0.01
3.324	0.01
3.326	0.01
3.329	0.00
3.331	0.00
3.333	0.00
3.335	0.00
3.337	0.01
3.339	0.02
3.341	0.01
3.344	0.01
3.346	0.01
3.348	0.02
3.350	0.02
3.352	0.01
3.354	0.01
3.357	0.00
3.359	-0.01
3.361	0.00
3.363	0.01
3.365	0.01
3.367	0.01
3.370	0.01
3.372	0.01
3.374	0.01
3.376	0.01
3.378	0.02
3.381	0.02
3.383	0.01
3.385	0.00
3.387	0.00
3.389	0.00
3.392	0.01
3.394	0.01
3.396	0.01
3.398	0.02
3.401	0.02
3.403	0.01
3.405	0.00
3.407	0.00
3.410	0.01
3.412	0.01
3.414	0.01
3.416	0.00
3.419	0.00
3.421	0.01
3.423	0.02
3.425	0.02
3.428	0.01
3.430	0.01
3.432	0.01
3.434	0.01
3.437	0.01
3.439	0.01
3.441	0.01
3.444	0.01
3.446	0.02
3.448	0.01
3.450	0.01
3.453	0.00
3.455	0.00
3.457	0.00
3.460	0.00
3.462	0.00
3.464	0.00
3.467	0.01
3.469	0.02
3.471	0.02
3.474	0.01
3.476	0.00
3.478	0.01
3.481	0.01
3.483	0.01
3.485	0.01
3.488	0.01
3.490	0.01
3.492	0.00
3.495	0.00
3.497	0.00
3.499	0.01
3.502	0.01
3.504	0.01
3.506	0.01
3.509	0.01
3.511	0.01
3.514	0.01
3.516	0.01
3.518	0.01
3.521	0.01
3.523	0.00
3.526	0.00
3.528	0.01
3.530	0.01
3.533	0.00
3.535	0.00
3.538	0.00
3.540	0.01
3.542	0.01
3.545	0.01
3.547	0.01
3.550	0.01
3.552	0.01
3.555	0.01
3.557	0.00
3.559	-0.01
3.562	0.00
3.564	0.00
3.567	0.00
3.569	0.01
3.572	0.01
3.574	0.01
3.577	0.01
3.579	0.01
3.582	0.00
3.584	0.00
3.587	0.00
3.589	0.00
3.592	0.01
3.594	0.02
3.596	0.03
3.599	0.02
3.601	0.01
3.604	0.00
3.607	0.00
3.609	0.00
3.612	0.00
3.614	0.00
3.617	0.01
3.619	0.00
3.622	0.00
3.624	0.00
3.627	0.00
3.629	0.00
3.632	0.01
3.634	0.01
3.637	0.00
3.639	0.00
3.642	0.01
3.645	0.01
3.647	0.02
3.650	0.01
3.652	0.01
3.655	0.01
3.657	0.01
3.660	0.01
3.663	0.01
3.665	0.01
3.668	0.01
3.670	0.01
3.673	0.01
3.676	0.00
3.678	0.00
3.681	0.01
3.683	0.01
3.686	0.01
3.689	0.00
3.691	0.01
3.694	0.02
3.697	0.02
3.699	0.02
3.702	0.02
3.704	0.01
3.707	0.01
3.710	0.00
3.712	0.01
3.715	0.00
3.718	0.00
3.720	0.01
3.723	0.01
3.726	0.01
3.728	0.00
3.731	0.01
3.734	0.01
3.737	0.02
3.739	0.01
3.742	0.01
3.745	0.01
3.747	0.01
3.750	0.01
3.753	0.01
3.755	0.01
3.758	0.01
3.761	0.01
3.764	0.01
3.766	0.01
3.769	0.01
3.772	0.01
3.775	0.02
3.777	0.03
3.780	0.04
3.783	0.03
3.786	0.03
3.788	0.02
3.791	0.03
3.794	0.03
3.797	0.04
3.800	0.05
3.802	0.04
3.805	0.04
3.808	0.04
3.811	0.04
3.813	0.04
3.816	0.05
3.819	0.05
3.822	0.07
3.825	0.09
3.828	0.10
3.830	0.13
3.833	0.16
3.836	0.19
3.839	0.23
3.842	0.26
3.845	0.30
3.847	0.33
3.850	0.33
3.853	0.32
3.856	0.28
3.859	0.23
3.862	0.19
3.865	0.14
3.868	0.10
3.870	0.08
3.873	0.06
3.876	0.05
3.879	0.04
3.882	0.03
3.885	0.02
3.888	0.02
3.891	0.02
3.894	0.02
3.897	0.03
3.900	0.03
3.903	0.03
3.905	0.03
3.908	0.03
3.911	0.03
3.914	0.02
3.917	0.02
3.920	0.02
3.923	0.03
3.926	0.04
3.929	0.04
3.932	0.03
3.935	0.02
3.938	0.02
3.941	0.03
3.944	0.03
3.947	0.03
3.950	0.03
3.953	0.03
3.956	0.03
3.959	0.03
3.962	0.03
3.965	0.03
3.968	0.03
3.971	0.04
3.974	0.04
3.977	0.04
3.980	0.04
3.984	0.04
3.987	0.03
3.990	0.02
3.993	0.02
3.996	0.02
3.999	0.03
4.002	0.03
4.005	0.04
4.008	0.04
4.011	0.04
4.014	0.04
4.017	0.04
4.021	0.04
4.024	0.04
4.027	0.04
4.030	0.04
4.033	0.03
4.036	0.03
4.039	0.03
4.043	0.03
4.046	0.03
4.049	0.03
4.052	0.03
4.055	0.03
4.058	0.02
4.062	0.02
4.065	0.03
4.068	0.03
4.071	0.04
4.074	0.06
4.078	0.07
4.081	0.09
4.084	0.12
4.087	0.14
4.090	0.16
4.094	0.18
4.097	0.18
4.100	0.18
4.103	0.17
4.107	0.17
4.110	0.16
4.113	0.15
4.116	0.13
4.120	0.11
4.123	0.10
4.126	0.09
4.130	0.08
4.133	0.08
4.136	0.08
4.139	0.08
4.143	0.08
4.146	0.08
4.149	0.08
4.153	0.08
4.156	0.08
4.159	0.08
4.163	0.09
4.166	0.10
4.169	0.11
4.173	0.13
4.176	0.15
4.179	0.16
4.183	0.17
4.186	0.18
4.190	0.21
4.193	0.24
4.196	0.30
4.200	0.37
4.203	0.45
4.207	0.56
4.210	0.68
4.213	0.83
4.217	0.99
4.220	1.17
4.224	1.35
4.227	1.50
4.231	1.59
4.234	1.59
4.238	1.51
4.241	1.37
4.245	1.19
4.248	1.00
4.251	0.82
4.255	0.67
4.258	0.55
4.262	0.45
4.265	0.37
4.269	0.30
4.273	0.25
4.276	0.21
4.280	0.18
4.283	0.15
4.287	0.13
4.290	0.12
4.294	0.10
4.297	0.09
4.301	0.08
4.304	0.08
4.308	0.07
4.312	0.06
4.315	0.06
4.319	0.05
4.322	0.05
4.326	0.05
4.330	0.05
4.333	0.04
4.337	0.03
4.340	0.03
4.344	0.03
4.348	0.03
4.351	0.03
4.355	0.03
4.359	0.04
4.362	0.04
4.366	0.04
4.370	0.03
4.373	0.03
4.377	0.04
4.381	0.04
4.385	0.05
4.388	0.04
4.392	0.04
4.396	0.04
4.399	0.04
4.403	0.04
4.407	0.05
4.411	0.05
4.414	0.05
4.418	0.05
4.422	0.05
4.426	0.05
4.430	0.05
4.433	0.05
4.437	0.05
4.441	0.05
4.445	0.06
4.449	0.05
4.452	0.05
4.456	0.04
4.460	0.03
4.464	0.03
4.468	0.04
4.472	0.04
4.475	0.04
4.479	0.04
4.483	0.04
4.487	0.04
4.491	0.04
4.495	0.04
4.499	0.04
4.503	0.05
4.507	0.05
4.510	0.04
4.514	0.04
4.518	0.04
4.522	0.04
4.526	0.04
4.530	0.04
4.534	0.04
4.538	0.04
4.542	0.04
4.546	0.04
4.550	0.04
4.554	0.04
4.558	0.04
4.562	0.05
4.566	0.05
4.570	0.06
4.574	0.05
4.578	0.05
4.582	0.05
4.586	0.06
4.590	0.06
4.594	0.06
4.599	0.06
4.603	0.06
4.607	0.07
4.611	0.07
4.615	0.07
4.619	0.07
4.623	0.08
4.627	0.08
4.631	0.08
4.636	0.08
4.640	0.09
4.644	0.09
4.648	0.08
4.652	0.08
4.656	0.07
4.661	0.06
4.665	0.06
4.669	0.06
4.673	0.06
4.677	0.07
4.682	0.08
4.686	0.08
4.690	0.08
4.694	0.07
4.699	0.07
4.703	0.07
4.707	0.08
4.711	0.09
4.716	0.09
4.720	0.09
4.724	0.09
4.729	0.11
4.733	0.12
4.737	0.13
4.742	0.14
4.746	0.16
4.750	0.19
4.755	0.21
4.759	0.25
4.763	0.29
4.768	0.34
4.772	0.40
4.777	0.46
4.781	0.53
4.785	0.60
4.790	0.66
4.794	0.68
4.799	0.69
4.803	0.67
4.808	0.63
4.812	0.58
4.816	0.52
4.821	0.46
4.825	0.40
4.830	0.34
4.834	0.30
4.839	0.26
4.844	0.22
4.848	0.20
4.853	0.18
4.857	0.17
4.862	0.15
4.866	0.14
4.871	0.13
4.875	0.11
4.880	0.10
4.885	0.10
4.889	0.10
4.894	0.10
4.898	0.09
4.903	0.09
4.908	0.09
4.912	0.09
4.917	0.09
4.922	0.09
4.926	0.10
4.931	0.10
4.936	0.10
4.940	0.11
4.945	0.11
4.950	0.11
4.955	0.11
4.959	0.12
4.964	0.14
4.969	0.15
4.974	0.17
4.978	0.20
4.983	0.23
4.988	0.25
4.993	0.27
4.998	0.27
5.002	0.27
5.007	0.26
5.012	0.24
5.017	0.22
5.022	0.19
5.027	0.16
5.032	0.13
5.036	0.11
5.041	0.09
5.046	0.08
5.051	0.06
5.056	0.05
5.061	0.04
5.066	0.04
5.071	0.03
5.076	0.03
5.081	0.02
5.086	0.02
5.091	0.02
5.096	0.02
5.101	0.02
5.106	0.01
5.111	0.01
5.116	0.02
5.121	0.02
5.126	0.01
5.131	0.01
5.136	0.01
5.141	0.01
5.147	0.01
5.152	0.01
5.157	0.01
5.162	0.01
5.167	0.00
5.172	0.01
5.177	0.01
5.183	0.01
5.188	0.01
5.193	0.01
5.198	0.01
5.203	0.01
5.209	0.01
5.214	0.01
5.219	0.01
5.224	0.02
5.230	0.01
5.235	0.01
5.240	0.00
5.245	0.01
5.251	0.01
5.256	0.02
5.261	0.02
5.267	0.02
5.272	0.02
5.278	0.02
5.283	0.02
5.288	0.03
5.294	0.05
5.299	0.07
5.305	0.10
5.310	0.16
5.315	0.32
5.321	0.67
5.326	1.24
5.332	1.82
5.337	2.08
5.343	1.89
5.348	1.43
5.354	0.92
5.359	0.53
5.365	0.29
5.371	0.18
5.376	0.13
5.382	0.10
5.387	0.09
5.393	0.08
5.398	0.07
5.404	0.07
5.410	0.07
5.415	0.08
5.421	0.08
5.427	0.09
5.432	0.10
5.438	0.12
5.444	0.16
5.450	0.22
5.455	0.28
5.461	0.32
5.467	0.34
5.473	0.32
5.478	0.27
5.484	0.20
5.490	0.14
5.496	0.09
5.502	0.06
5.507	0.04
5.513	0.02
5.519	0.01
5.525	0.01
5.531	0.01
5.537	0.00
5.543	0.00
5.549	0.01
5.555	0.01
5.561	0.01
5.567	0.00
5.573	0.00
5.579	0.00
5.585	0.00
5.591	0.00
5.597	0.00
5.603	0.00
5.609	0.00
5.615	0.00
5.621	0.01
5.627	0.01
5.633	0.01
5.639	0.01
5.645	0.01
5.652	0.01
5.658	0.01
5.664	0.01
5.670	0.01
5.676	0.01
5.683	0.01
5.689	0.01
5.695	0.01
5.701	0.01
5.708	0.01
5.714	0.01
5.720	0.00
5.727	0.00
5.733	0.00
5.739	0.00
5.746	0.01
5.752	0.01
5.758	0.01
5.765	0.00
5.771	0.00
5.778	0.00
5.784	0.00
5.791	0.00
5.797	0.00
5.804	0.00
5.810	0.01
5.817	0.01
5.823	0.01
5.830	0.01
5.836	0.01
5.843	0.01
5.849	0.00
5.856	0.00
5.863	0.00
5.869	0.01
5.876	0.01
5.883	0.00
5.889	0.00
5.896	0.00
5.903	0.00
5.909	0.01
5.916	0.01
5.923	0.02
5.930	0.01
5.936	0.01
5.943	0.01
5.950	0.01
5.957	0.01
5.964	0.01
5.971	0.00
5.978	0.00
5.984	0.00
5.991	0.01
5.998	0.01
6.005	0.01
6.012	0.01
6.019	0.01
6.026	0.02
6.033	0.05
6.040	0.08
6.047	0.12
6.054	0.14
6.061	0.13
6.069	0.10
6.076	0.07
6.083	0.04
6.090	0.02
6.097	0.01
6.104	0.01
6.111	0.01
6.119	0.00
6.126	0.00
6.133	0.01
6.140	0.01
6.148	0.01
6.155	0.00
6.162	0.00
6.170	0.00
6.177	0.00
6.184	0.00
6.192	0.00
6.199	0.00
6.207	0.00
6.214	0.01
6.222	0.01
6.229	0.00
6.237	0.01
6.244	0.01
6.252	0.01
6.259	0.01
6.267	0.00
6.274	0.00
6.282	0.00
6.290	0.00
6.297	0.01
6.305	0.01
6.312	0.01
6.320	0.01
6.328	0.01
6.336	0.00
6.343	0.00
6.351	0.00
6.359	0.01
6.367	0.01
6.375	0.01
6.382	0.01
6.390	0.01
6.398	0.01
6.406	0.01
6.414	0.01
6.422	0.01
6.430	0.01
6.438	0.01
6.446	0.01
6.454	0.01
6.462	0.00
6.470	0.00
6.478	0.01
6.486	0.01
6.494	0.01
6.503	0.01
6.511	0.00
6.519	0.00
6.527	0.00
6.535	0.00
6.544	0.01
6.552	0.00
6.560	0.00
6.568	0.01
6.577	0.01
6.585	0.01
6.594	0.01
6.602	0.01
6.610	0.00
6.619	0.01
6.627	0.01
6.636	0.01
6.644	0.01
6.653	0.01
6.661	0.01
6.670	0.00
6.679	0.00
6.687	0.01
6.696	0.01
6.704	0.01
6.713	0.01
6.722	0.01
6.731	0.01
6.739	0.01
6.748	0.02
6.757	0.02
6.766	0.01
6.775	0.00
6.783	0.00
6.792	0.00
6.801	0.01
6.810	0.01
6.819	0.01
6.828	0.01
6.837	0.00
6.846	0.00
6.855	0.00
6.864	0.01
6.873	0.01
6.883	0.00
6.892	0.01
6.901	0.00
6.910	0.00
6.919	0.01
6.929	0.01
6.938	0.01
6.947	0.01
6.956	0.01
6.966	0.01
6.975	0.01
6.985	0.01
6.994	0.01
7.003	0.01
7.013	0.00
7.022	0.00
7.032	0.01
7.042	0.01
7.051	0.01
7.061	0.02
7.070	0.03
7.080	0.03
7.090	0.03
7.099	0.04
7.109	0.05
7.119	0.06
7.129	0.06
7.138	0.06
7.148	0.06
7.158	0.06
7.168	0.07
7.178	0.08
7.188	0.10
7.198	0.11
7.208	0.12
7.218	0.14
7.228	0.16
7.238	0.17
7.248	0.18
7.258	0.20
7.269	0.22
7.279	0.24
7.289	0.27
7.299	0.29
7.310	0.32
7.320	0.35
7.330	0.39
7.341	0.44
7.351	0.49
7.362	0.54
7.372	0.60
7.383	0.66
7.393	0.73
7.404	0.80
7.414	0.89
7.425	0.99
7.435	1.10
7.446	1.21
7.457	1.35
7.468	1.51
7.478	1.69
7.489	1.90
7.500	2.13
7.511	2.39
7.522	2.68
7.533	3.02
7.544	3.40
7.555	3.84
7.566	4.33
7.577	4.90
7.588	5.54
7.599	6.27
7.610	7.10
7.621	8.04
7.633	9.12
7.644	10.34
7.655	11.71
7.666	13.26
7.678	14.98
7.689	16.91
7.701	19.06
7.712	21.43
7.724	24.04
7.735	26.87
7.747	29.92
7.758	33.18
7.770	36.60
7.782	40.15
7.793	43.77
7.805	47.41
7.817	50.99
7.829	54.45
7.840	57.73
7.852	60.77
7.864	63.54
7.876	65.99
7.888	68.13
7.900	69.96
7.912	71.52
7.924	72.82
7.937	73.90
7.949	74.81
7.961	75.59
7.973	76.29
7.985	76.93
7.998	77.54
8.010	78.14
8.023	78.76
8.035	79.40
8.047	80.08
8.060	80.79
8.073	81.51
8.085	82.26
8.098	83.00
8.110	83.71
8.123	84.37
8.136	84.96
8.149	85.45
8.161	85.84
8.174	86.07
8.187	86.15
8.200	86.06
8.213	85.80
8.226	85.38
8.239	84.80
8.252	84.07
8.266	83.22
8.279	82.26
8.292	81.23
8.305	80.15
8.319	79.07
8.332	77.99
8.346	76.96
8.359	75.97
8.372	75.07
8.386	74.27
8.400	73.57
8.413	72.98
8.427	72.52
8.441	72.19
8.454	71.99
8.468	71.95
8.482	72.04
8.496	72.27
8.510	72.62
8.524	73.10
8.538	73.69
8.552	74.38
8.566	75.18
8.580	76.08
8.595	77.05
8.609	78.08
8.623	79.15
8.638	80.24
8.652	81.34
8.666	82.44
8.681	83.50
8.696	84.53
8.710	85.48
8.725	86.36
8.740	87.15
8.754	87.85
8.769	88.46
8.784	88.97
8.799	89.39
8.814	89.71
8.829	89.95
8.844	90.11
8.859	90.21
8.874	90.24
8.889	90.23
8.905	90.18
8.920	90.09
8.935	89.98
8.951	89.83
8.966	89.66
8.982	89.49
8.997	89.32
9.013	89.14
9.029	88.95
9.045	88.74
9.060	88.51
9.076	88.27
9.092	88.04
9.108	87.80
9.124	87.56
9.140	87.34
9.156	87.12
9.173	86.93
9.189	86.76
9.205	86.62
9.222	86.51
9.238	86.43
9.255	86.37
9.271	86.34
9.288	86.30
9.304	86.23
9.321	86.09
9.338	85.84
9.355	85.40
9.372	84.68
9.389	83.57
9.406	81.98
9.423	79.80
9.440	76.96
9.457	73.42
9.474	69.17
9.492	64.29
9.509	58.90
9.527	53.21
9.544	47.44
9.562	41.77
9.580	36.38
9.597	31.39
9.615	26.91
9.633	22.95
9.651	19.49
9.669	16.50
9.687	13.96
9.705	11.83
9.723	10.03
9.742	8.51
9.760	7.23
9.778	6.15
9.797	5.25
9.815	4.49
9.834	3.86
9.853	3.33
9.871	2.89
9.890	2.50
9.909	2.17
9.928	1.88
9.947	1.64
9.966	1.44
9.986	1.26
10.005	1.11
10.024	0.98
10.044	0.86
10.063	0.76
10.083	0.68
10.102	0.62
10.122	0.55
10.142	0.49
10.162	0.44
10.182	0.39
10.202	0.35
10.222	0.32
10.242	0.29
10.262	0.27
10.283	0.25
10.303	0.23
10.324	0.19
10.344	0.17
10.365	0.15
10.386	0.15
10.407	0.15
10.428	0.14
10.449	0.11
10.470	0.10
10.491	0.10
10.512	0.10
10.534	0.10
10.555	0.10
10.577	0.09
10.598	0.08
10.620	0.07
10.642	0.06
10.664	0.06
10.686	0.07
10.708	0.07
10.730	0.06
10.752	0.06
10.774	0.05
10.797	0.03
10.819	0.03
10.842	0.03
10.865	0.03
10.888	0.03
10.911	0.04
10.934	0.04
10.957	0.03
10.980	0.01
11.003	0.01
11.027	0.03
11.050	0.04
11.074	0.04
11.098	0.03
11.121	0.02
11.145	0.02
11.169	0.01
11.193	0.01
11.218	0.02
11.242	0.02
11.266	0.02
11.291	0.02
11.316	0.01
11.340	0.01
11.365	0.02
11.390	0.02
11.415	0.03
11.440	0.05
11.466	0.04
11.491	0.02
11.517	0.01
11.542	0.01
11.568	0.01
11.594	0.02
11.620	0.03
11.646	0.03
11.672	0.02
11.699	0.01
11.725	0.01
11.752	0.00
11.779	0.01
11.805	0.02
11.832	0.02
11.859	0.03
11.887	0.03
11.914	0.03
11.941	0.03
11.969	0.02
11.997	0.02
12.024	0.01
12.052	0.02
12.081	0.03
12.109	0.03
12.137	0.03
12.166	0.02
12.194	0.01
12.223	0.00
12.252	0.00
12.281	0.00
12.310	0.00
12.339	0.00
12.369	0.00
12.398	0.01
12.428	0.03
12.458	0.03
12.488	0.02
12.518	0.01
12.548	0.01
12.579	0.02
12.610	0.02
12.640	0.03
12.671	0.03
12.702	0.03
12.734	0.02
12.765	0.01
12.796	0.01
12.828	0.00
12.860	0.00
12.892	0.02
12.924	0.03
12.956	0.03
12.989	0.00
13.022	-0.01
13.054	0.00
13.087	0.01
13.120	0.01
13.154	0.02
13.187	0.03
13.221	0.03
13.255	0.02
13.289	0.03
13.323	0.02
13.357	0.00
13.392	0.00
13.426	0.01
13.461	0.02
13.496	0.02
13.531	0.02
13.567	0.02
13.602	0.02
13.638	0.03
13.674	0.03
13.710	0.02
13.747	0.02
13.783	0.02
13.820	0.01
13.857	0.00
13.894	0.01
13.932	0.02
13.969	0.01
14.007	0.01
14.045	0.01
14.083	0.02
14.121	0.00
14.160	-0.01
14.199	-0.01
14.238	0.00
14.277	0.01
14.316	0.02
14.356	0.05
14.396	0.05
14.436	0.03
14.476	0.00
14.517	-0.01
14.558	0.00
14.599	0.00
14.640	0.03
14.681	0.05
14.723	0.05
14.765	0.05
14.807	0.03
14.850	0.02
14.892	0.01
14.935	0.00
14.978	0.00
15.022	0.01
15.065	0.02
15.109	0.04
15.154	0.03
15.198	0.02
15.243	0.01
15.288	0.00
15.333	0.02
15.378	0.03
15.424	0.01
15.470	0.01
15.517	0.01
15.563	0.02
15.610	0.04
15.657	0.05
15.705	0.05
15.752	0.02
15.801	0.01
15.849	0.02
15.897	0.04
15.946	0.06
15.995	0.06
16.045	0.04
16.095	0.02
16.145	0.01
16.195	0.03
16.246	0.05
16.297	0.06
16.349	0.05
16.400	0.05
16.453	0.05
16.505	0.03
16.558	0.01
16.611	0.00
16.664	0.01
16.718	0.02
16.772	0.02
16.827	0.01
16.881	-0.03
16.937	-0.04
16.992	-0.01
17.048	0.03
17.104	0.05
17.161	0.05
17.218	0.06
17.275	0.06
17.333	0.06
17.391	0.05
17.450	0.04
17.509	0.04
17.568	0.06
17.628	0.09
17.688	0.10
17.748	0.08
17.809	0.05
17.871	0.05
17.933	0.07
17.995	0.10
18.058	0.09
18.121	0.05
18.184	0.03
18.249	0.03
18.313	0.04
18.378	0.08
18.443	0.10
18.509	0.09
18.575	0.09
18.642	0.08
18.709	0.05
18.777	0.02
18.846	0.00
18.914	-0.01
18.984	0.00
19.053	0.02
19.124	0.04
19.195	0.07
19.266	0.09
19.338	0.10
19.410	0.09
19.483	0.07
19.557	0.06
19.631	0.07
19.706	0.08
19.781	0.05
19.857	0.00
19.933	-0.02
20.010	0.03
20.087	0.10
20.165	0.16
20.244	0.14
20.324	0.03
20.404	-0.08
20.484	-0.05
20.566	0.05
20.648	0.07
20.730	0.09
20.813	0.09
20.897	0.05
20.982	0.04
21.067	0.09
21.153	0.16
21.240	0.16
21.327	0.15
21.416	0.22
21.504	0.26
21.594	0.18
21.684	0.08
21.776	0.08
21.867	0.11
21.960	0.10
22.053	0.05
22.147	0.00
22.242	0.04
22.338	0.11
22.435	0.13
22.533	0.14
22.631	0.14
22.730	0.15
22.831	0.19
22.932	0.22
23.034	0.20
23.136	0.15
23.240	0.11
23.345	0.14
23.451	0.17
23.557	0.17
23.665	0.15
23.773	0.16
23.883	0.22
23.993	0.31
24.218	1.65
24.446	1.40
24.679	0.98
24.916	0.82
25.158	0.87
25.405	0.79
25.656	0.54
25.913	0.48
26.175	0.55
26.442	0.43
26.714	0.08
26.993	0.36
27.276	0.38
27.566	0.66
27.863	0.76
28.166	0.58
28.475	0.44
28.792	0.35
29.115	0.26
29.446	0.49
29.785	1.09
30.131	1.67
30.486	1.63
30.848	1.05
31.220	0.31
31.601	0.04
31.991	0.68
32.391	1.17
32.801	0.77
33.221	1.13
33.653	1.98
34.096	2.11
34.551	1.79
35.018	1.60
35.496	1.44
35.989	1.04
36.496	0.74
37.018	0.90
37.554	0.76
38.107	0.21
38.676	0.08
39.262	0.72
39.866	0.72
40.489	0.78
41.132	1.02
41.796	0.79
42.479	0.47
43.187	0.86
43.919	0.96
44.677	0.85
45.461	0.72
46.273	1.15
47.114	1.97
47.987	1.94
48.893	0.65
49.833	-0.35
50.810	-0.59
51.824	0.11
52.882	0.20
53.984	0.88
55.133	2.46
56.332	2.82
57.584	1.49
58.893	1.00
60.263	1.58
61.698	0.97
63.203	0.45
64.784	1.33
66.441	1.50
68.190	0.97
70.033	-0.28
71.979	1.10
74.036	1.43
76.214	0.23
78.524	0.65
80.978	1.57
83.591	0.43
86.378	0.55
89.358	2.04
92.541	2.72
95.969	1.52
99.661	1.18
103.648	2.39
107.968	3.17
112.663	2.63
117.786	2.53
123.396	4.23
129.567	6.15
136.388	5.56
143.968	3.67
152.439	2.75
161.943	3.42
172.741	6.85
185.082	10.27
199.322	11.78